# units Angstrom
# wavelengths in IN VACUUM
# line list created from the ATRAN model with params WV=2mm, AM=1.5, R=15000
# to use for GNIRS XJHK-band observations, R > 10000)
10774.86 0.038
10802.53 0.053
10813.76 0.034
10835.06 0.064
10836.94 0.023
10860.29 0.055
10862.96 0.134
10871.07 0.027
10891.78 0.037
10895.18 0.037
10903.98 0.099
10906.67 0.032
10925.94 0.153
10933.84 0.026
10938.14 0.030
10947.41 0.034
10949.33 0.091
10957.54 0.029
10962.85 0.060
10975.98 0.047
10978.94 0.078
10981.76 0.029
10985.39 0.033
10988.86 0.062
10991.28 0.042
10995.04 0.031
10996.93 0.177
10999.46 0.081
11002.53 0.027
11005.62 0.071
11016.99 0.032
11030.64 0.144
11032.96 0.059
11035.42 0.065
11041.97 0.136
11044.40 0.186
11055.65 0.132
11060.88 0.085
11063.01 0.176
11067.15 0.166
11072.22 0.026
11077.65 0.081
11085.07 0.179
11087.70 0.229
11093.68 0.118
11095.31 0.037
11102.00 0.030
11105.90 0.380
11109.07 0.238
11112.46 0.251
11115.12 0.424
11123.71 0.168
11130.00 0.448
11139.18 0.378
11142.58 0.107
11146.40 0.070
11148.10 0.152
11154.99 0.444
11158.40 0.230
11160.37 0.181
11172.82 0.662
11175.07 0.701
11180.67 0.207
11183.79 0.771
11200.11 0.652
11204.05 0.890
11208.03 0.243
11213.71 0.817
11224.30 0.941
11227.92 0.904
11249.01 0.151
11251.41 0.438
11268.22 0.493
11274.10 0.806
11278.83 0.926
11285.23 0.816
11289.92 0.790
11293.17 0.574
11297.50 0.935
11301.92 0.742
11304.70 0.175
11308.53 0.239
11315.52 0.472
11321.10 0.251
11324.74 0.720
11328.19 0.093
11330.03 0.259
11332.74 0.723
11341.14 0.840
11356.96 0.111
11364.30 0.134
11365.92 0.096
11368.29 0.139
11372.21 0.037
11376.74 0.725
11380.88 0.074
11385.36 0.862
11391.28 0.030
11403.60 0.043
11408.96 0.868
11415.33 0.768
11418.75 0.089
11422.13 0.669
11426.35 0.142
11429.01 0.263
11430.94 0.113
11437.82 0.729
11443.58 0.936
11449.76 0.787
11454.58 0.805
11459.39 0.708
11463.22 0.337
11466.80 0.889
11470.64 0.721
11473.31 0.617
11476.22 0.783
11484.21 0.044
11488.61 0.815
11498.22 0.850
11504.83 0.116
11508.54 0.607
11513.22 0.648
11520.40 0.764
11540.50 0.630
11543.10 0.278
11544.67 0.511
11549.90 0.418
11554.24 0.288
11557.76 0.762
11562.32 0.042
11568.59 0.060
11572.27 0.290
11574.48 0.161
11578.37 0.615
11585.01 0.199
11589.82 0.622
11595.30 0.091
11597.23 0.313
11601.17 0.187
11612.53 0.116
11614.64 0.218
11617.02 0.103
11623.39 0.413
11625.22 0.091
11633.58 0.029
11636.08 0.137
11638.24 0.193
11641.30 0.044
11643.73 0.028
11646.99 0.025
11660.69 0.098
11664.98 0.045
11667.54 0.211
11671.92 0.113
11679.49 0.045
11684.00 0.151
11688.32 0.043
11695.04 0.103
11705.73 0.087
11710.62 0.161
11718.86 0.078
11723.58 0.193
11729.01 0.085
11730.91 0.049
11736.37 0.112
11749.25 0.027
11754.38 0.152
11766.62 0.034
11775.95 0.213
11777.54 0.265
11784.05 0.192
11795.73 0.264
11798.08 0.119
11809.10 0.051
11813.39 0.118
11815.95 0.031
11818.56 0.478
11821.95 0.318
11836.32 0.036
11838.64 0.057
11843.26 0.314
11847.94 0.148
11850.50 0.237
11859.44 0.048
11865.06 0.089
11868.98 0.081
11876.72 0.342
11879.54 0.034
11881.95 0.305
11892.32 0.180
11902.86 0.128
11906.42 0.029
11908.32 0.081
11910.00 0.042
11913.23 0.033
11918.62 0.103
11927.95 0.032
11934.86 0.239
11936.78 0.042
11951.04 0.098
11955.98 0.080
11963.50 0.083
11969.57 0.027
11976.02 0.207
11985.15 0.058
11987.98 0.207
11990.03 0.080
11992.00 0.150
11997.26 0.072
12001.65 0.081
12004.64 0.047
12008.56 0.115
12013.46 0.080
12018.53 0.205
12026.35 0.052
12030.59 0.037
12033.44 0.066
12046.32 0.029
12048.02 0.027
12050.67 0.249
12061.68 0.014
12065.17 0.095
12070.51 0.082
12074.45 0.105
12078.45 0.030
12081.58 0.145
12088.34 0.023
12091.58 0.202
12099.73 0.145
12113.63 0.186
12119.31 0.054
12130.61 0.029
12138.98 0.033
12141.44 0.067
12144.05 0.050
12145.97 0.030
12149.17 0.088
12151.90 0.024
12154.66 0.077
12168.58 0.081
12179.46 0.046
12181.33 0.033
12186.64 0.018
12189.10 0.040
12193.63 0.051
12196.91 0.019
12198.86 0.035
12200.78 0.013
12203.31 0.060
12217.82 0.085
12221.89 0.021
12226.38 0.078
12231.07 0.036
12236.03 0.040
12237.66 0.053
12242.83 0.026
12244.91 0.027
12254.29 0.038
12260.72 0.023
12267.07 0.025
12270.50 0.077
12295.34 0.038
12496.10 0.023
12511.10 0.039
12526.45 0.065
12542.11 0.098
12558.08 0.130
12574.38 0.163
12591.01 0.192
12595.78 0.022
12598.38 0.036
12601.82 0.041
12604.72 0.063
12607.98 0.263
12611.34 0.098
12614.70 0.105
12618.24 0.138
12621.58 0.148
12625.30 0.357
12628.74 0.190
12632.88 0.210
12636.16 0.228
12640.61 0.239
12648.61 0.251
12651.84 0.282
12656.90 0.249
12665.47 0.226
12668.61 0.289
12674.38 0.151
12677.39 0.280
12687.38 0.531
12690.75 0.363
12692.32 0.264
12696.26 0.167
12698.61 0.122
12704.24 0.039
12707.04 0.191
12710.27 0.141
12717.07 0.205
12720.27 0.174
12725.36 0.056
12727.38 0.205
12730.53 0.179
12737.95 0.187
12741.07 0.167
12744.64 0.086
12748.78 0.160
12751.87 0.144
12759.89 0.128
12762.94 0.115
12771.22 0.099
12774.29 0.084
12784.08 0.094
12785.90 0.053
12794.80 0.034
12797.78 0.032
12804.27 0.081
12807.01 0.017
12824.75 0.062
12866.66 0.028
12888.98 0.038
12917.46 0.045
12955.14 0.030
12957.14 0.038
12973.15 0.087
12979.46 0.025
12994.77 0.081
12997.54 0.072
13004.43 0.101
13006.70 0.048
13010.70 0.110
13023.15 0.044
13028.22 0.089
13034.93 0.207
13040.38 0.091
13042.77 0.215
13044.54 0.075
13055.66 0.079
13066.53 0.285
13068.83 0.057
13071.66 0.096
13081.15 0.320
13096.78 0.330
13099.63 0.155
13105.31 0.290
13109.17 0.028
13110.70 0.036
13122.86 0.230
13124.94 0.041
13129.70 0.204
13132.70 0.080
13136.99 0.523
13140.22 0.033
13142.64 0.114
13145.47 0.096
13149.23 0.146
13153.82 0.124
13156.56 0.198
13158.61 0.037
13162.18 0.037
13169.78 0.406
13172.66 0.028
13183.23 0.308
13185.70 0.064
13188.27 0.302
13201.22 0.532
13203.94 0.275
13210.50 0.078
13214.27 0.401
13217.98 0.115
13221.47 0.108
13225.31 0.151
13229.38 0.311
13232.16 0.356
13237.30 0.027
13240.74 0.378
13243.07 0.189
13253.44 0.200
13255.84 0.315
13259.09 0.104
13263.36 0.117
13269.58 0.243
13274.83 0.078
13278.54 0.291
13288.24 0.509
13292.27 0.491
13295.36 0.044
13296.75 0.057
13306.83 0.172
13308.94 0.334
13313.28 0.591
13324.74 0.777
13327.34 0.141
13330.75 0.209
13341.22 0.373
13349.31 0.496
13354.34 0.091
13359.87 0.781
13366.56 0.059
13369.65 0.264
13371.38 0.392
13374.86 0.651
13377.52 0.100
13380.11 0.633
13387.70 0.418
13392.90 0.576
13409.23 0.056
13413.44 0.451
13416.19 0.579
13421.15 0.106
13424.18 0.067
13427.23 0.533
13429.42 0.093
13430.69 0.078
13438.50 0.529
13440.75 0.789
13444.48 0.536
13446.08 0.704
13456.35 0.623
13459.46 0.579
13462.62 0.220
13468.56 0.236
13472.45 0.421
13492.77 0.679
13496.10 0.231
13499.30 0.788
13506.90 0.802
13509.90 0.553
13517.97 0.965
13524.99 0.995
13527.54 0.469
13531.44 1.000
13536.80 0.980
13558.18 1.000
13574.94 0.982
13577.70 0.999
13584.26 1.000
13669.10 0.999
13692.58 0.977
13700.00 1.000
14906.21 0.033
14909.26 0.041
14925.18 0.152
14932.79 0.125
14943.98 0.135
14949.44 0.312
14953.65 0.131
14957.95 0.379
14965.41 0.501
14976.04 0.125
14985.65 0.085
14991.46 0.152
14997.21 0.171
15007.30 0.072
15018.55 0.217
15027.50 0.230
15031.78 0.106
15035.70 0.133
15043.88 0.178
15047.70 0.280
15052.02 0.059
15058.16 0.067
15072.57 0.102
15082.84 0.160
15090.89 0.188
15102.29 0.073
15109.86 0.053
15112.36 0.025
15123.96 0.103
15128.81 0.074
15131.64 0.038
15135.13 0.037
15137.78 0.096
15148.50 0.076
15162.83 0.110
15168.22 0.088
15172.50 0.028
15176.05 0.108
15183.75 0.045
15191.82 0.063
15204.35 0.047
15218.63 0.039
15245.58 0.036
15258.00 0.032
15267.73 0.039
15273.79 0.040
15287.50 0.029
15313.62 0.036
15328.49 0.013
15331.60 0.016
15334.72 0.019
15337.88 0.022
15344.35 0.027
15347.64 0.028
15351.04 0.034
15354.33 0.029
15357.75 0.032
15364.72 0.021
15371.72 0.023
15384.77 0.013
15388.56 0.018
15396.29 0.025
15400.21 0.026
15404.16 0.027
15408.17 0.028
15412.23 0.025
15416.33 0.025
15424.62 0.017
15428.88 0.017
15433.09 0.012
15683.39 0.014
15685.65 0.016
15687.80 0.021
15690.10 0.029
15692.45 0.044
15694.95 0.056
15697.47 0.068
15700.04 0.083
15702.69 0.100
15705.44 0.122
15708.24 0.139
15711.12 0.156
15714.06 0.171
15717.08 0.186
15720.18 0.194
15723.36 0.202
15726.60 0.204
15729.91 0.202
15733.31 0.195
15736.78 0.180
15740.33 0.158
15743.97 0.128
15747.68 0.085
15751.43 0.032
15757.24 0.060
15761.21 0.106
15765.27 0.144
15769.39 0.164
15773.60 0.178
15777.86 0.186
15782.22 0.189
15786.65 0.187
15791.15 0.179
15795.74 0.169
15800.39 0.153
15805.12 0.138
15809.93 0.121
15814.82 0.104
15819.77 0.087
15824.80 0.072
15829.89 0.058
15835.08 0.043
15840.33 0.033
15845.63 0.024
15851.03 0.017
15856.49 0.012
15983.55 0.013
15988.02 0.022
15990.42 0.032
15992.96 0.044
15995.50 0.053
15998.14 0.067
16000.83 0.085
16003.64 0.107
16006.51 0.123
16009.48 0.139
16012.50 0.158
16015.60 0.176
16018.78 0.189
16022.02 0.201
16025.38 0.206
16028.78 0.210
16032.26 0.209
16035.82 0.200
16039.46 0.187
16043.17 0.163
16046.94 0.130
16050.80 0.089
16054.77 0.033
16060.76 0.062
16064.90 0.109
16069.09 0.143
16073.35 0.165
16077.69 0.182
16082.10 0.192
16086.62 0.194
16091.16 0.191
16095.83 0.187
16100.52 0.173
16105.32 0.163
16110.19 0.145
16115.15 0.127
16120.17 0.110
16125.28 0.093
16130.48 0.076
16135.75 0.061
16141.10 0.046
16146.54 0.036
16152.00 0.026
16157.68 0.021
16163.25 0.014
16169.02 0.015
16305.09 0.021
16354.31 0.071
16366.77 0.014
16376.92 0.086
16400.44 0.019
16403.49 0.131
16407.98 0.026
16411.80 0.029
16415.66 0.032
16419.56 0.034
16423.49 0.036
16429.17 0.185
16435.51 0.033
16439.57 0.030
16443.67 0.025
16447.79 0.020
16451.98 0.017
16455.49 0.256
16466.74 0.014
16471.04 0.020
16475.36 0.026
16482.29 0.180
16488.59 0.032
16492.97 0.037
16497.45 0.032
16501.99 0.027
16506.57 0.026
16509.56 0.218
16515.70 0.023
16520.30 0.029
16537.26 0.190
16565.46 0.097
16594.13 0.050
16623.30 0.054
16659.58 0.185
16661.99 0.136
16664.73 0.101
16667.98 0.082
16671.34 0.048
16673.79 0.018
16713.49 0.040
16744.48 0.104
16776.00 0.129
16807.91 0.101
16840.29 0.161
16873.14 0.098
16915.43 0.029
16996.06 0.025
17009.39 0.064
17027.69 0.030
17035.25 0.033
17056.20 0.020
17061.40 0.029
17076.01 0.045
17081.29 0.032
17086.14 0.124
17092.63 0.012
17106.56 0.038
17143.10 0.152
17146.21 0.059
17153.04 0.026
17161.22 0.122
17170.08 0.014
17200.48 0.016
17212.43 0.186
17214.56 0.165
17226.64 0.024
17235.64 0.186
17243.20 0.088
17245.59 0.104
17248.77 0.066
17254.54 0.015
17262.13 0.075
17270.18 0.033
17285.34 0.065
17289.07 0.105
17306.42 0.016
17309.07 0.026
17320.15 0.250
17323.87 0.348
17343.02 0.015
17347.61 0.013
17350.37 0.017
17356.42 0.158
17361.12 0.161
17379.15 0.016
17398.23 0.202
17412.79 0.415
17416.56 0.097
17444.46 0.342
17467.38 0.509
17470.96 0.386
17475.00 0.183
17515.44 0.490
17527.66 0.040
17551.61 0.489
17555.60 0.029
17568.19 0.382
17574.59 0.457
17610.39 0.368
17624.87 0.271
17630.66 0.326
17659.37 0.900
17671.87 0.032
17682.55 0.071
17691.13 0.065
17694.90 0.047
17697.71 0.219
17707.25 0.461
17721.48 0.018
17725.36 0.046
17730.78 0.031
17740.13 0.485
17744.01 0.372
17747.45 0.038
17750.11 0.079
17755.19 0.046
17757.80 0.117
17762.39 0.632
17765.68 0.094
17770.77 0.063
17775.64 0.024
17778.86 0.097
17783.86 0.319
17788.29 0.771
17791.08 0.199
17798.14 0.061
17812.59 0.815
17825.78 0.071
17833.30 0.092
17842.73 0.312
17848.04 0.934
17859.73 0.574
17865.17 0.130
17871.33 0.689
17875.19 0.133
17878.31 0.032
17888.37 0.452
17904.41 0.464
17927.44 0.582
17934.74 0.776
17939.26 0.824
17945.44 0.129
17948.08 0.116
17952.73 0.749
17960.58 0.529
17963.23 0.394
17975.58 0.072
17981.26 0.782
17999.99 0.785
19106.13 0.998
19181.81 0.290
19260.66 0.808
19319.35 0.948
19340.36 0.994
19365.94 0.991
19373.36 0.667
19391.40 0.991
19404.25 0.259
19409.73 0.889
19429.09 0.393
19444.81 0.677
19481.95 0.812
19513.10 0.468
19521.99 0.707
19572.33 0.915
19583.24 0.857
19588.75 0.812
19600.34 0.663
19609.96 0.791
19615.21 0.578
19621.17 0.776
19627.65 0.914
19633.66 0.894
19640.14 0.795
19646.63 0.815
19653.29 0.853
19659.89 0.841
19666.51 0.776
19673.32 0.760
19680.13 0.829
19687.17 0.708
19701.39 0.636
19715.82 0.778
19730.75 0.452
19734.83 0.110
19758.97 0.286
19769.30 0.165
19775.40 0.148
19830.66 0.245
19844.30 0.032
19852.28 0.328
19879.62 0.047
19898.25 0.175
19901.83 0.536
19907.31 0.323
19919.46 0.047
19941.87 0.405
19947.21 0.112
19956.65 0.343
19975.48 0.379
19986.19 0.599
19990.12 0.651
19994.02 0.689
19998.07 0.751
20002.26 0.794
20006.63 0.842
20015.58 0.893
20020.25 0.919
20025.06 0.933
20035.03 0.952
20040.22 0.958
20045.47 0.963
20050.87 0.964
20062.13 0.964
20067.88 0.946
20073.72 0.926
20079.70 0.888
20085.95 0.702
20095.37 0.817
20101.82 0.913
20108.51 0.940
20115.11 0.940
20121.91 0.955
20128.90 0.956
20143.15 0.949
20150.46 0.950
20157.97 0.944
20165.50 0.924
20173.13 0.923
20180.99 0.897
20189.03 0.880
20197.04 0.839
20205.16 0.797
20213.43 0.768
20222.06 0.722
20230.54 0.630
20235.73 0.169
20239.13 0.595
20243.74 0.134
20248.05 0.487
20256.99 0.412
20266.09 0.344
20281.66 0.180
20284.66 0.225
20287.41 0.152
20327.86 0.048
20337.69 0.056
20340.24 0.064
20342.94 0.068
20348.07 0.064
20356.23 0.070
20364.74 0.077
20369.63 0.078
20374.01 0.086
20378.85 0.099
20383.74 0.139
20388.70 0.124
20393.81 0.141
20409.79 0.185
20415.39 0.176
20420.97 0.177
20426.78 0.190
20432.88 0.177
20438.77 0.139
20451.06 0.127
20454.91 0.088
20464.32 0.123
20473.77 0.280
20478.61 0.268
20483.59 0.329
20488.46 0.447
20498.99 0.491
20504.30 0.551
20509.61 0.630
20520.70 0.666
20526.33 0.700
20532.02 0.736
20537.83 0.752
20543.70 0.768
20549.62 0.777
20555.64 0.788
20561.77 0.785
20574.18 0.761
20580.45 0.740
20586.88 0.683
20593.33 0.592
20599.87 0.381
20604.62 0.097
20616.53 0.637
20623.31 0.706
20630.17 0.741
20637.13 0.756
20644.14 0.763
20651.21 0.764
20658.39 0.758
20665.61 0.746
20672.94 0.729
20680.33 0.710
20687.78 0.683
20695.32 0.647
20702.98 0.619
20710.63 0.582
20718.47 0.517
20726.39 0.507
20750.53 0.390
20761.50 0.095
20763.87 0.105
20767.13 0.246
20770.36 0.096
20783.65 0.164
20792.59 0.089
20806.53 0.040
20809.96 0.066
20813.77 0.054
20820.46 0.082
20824.24 0.074
20831.49 0.097
20834.66 0.105
20838.62 0.090
20841.73 0.101
20853.43 0.091
20856.13 0.104
20916.44 0.059
20928.87 0.022
20932.69 0.056
20938.97 0.109
20954.60 0.023
20958.18 0.024
20979.15 0.021
20988.01 0.122
20998.01 0.028
21010.89 0.029
21024.06 0.028
21030.66 0.024
21037.32 0.022
21044.07 0.018
21089.30 0.031
21103.76 0.036
21110.80 0.032
21118.28 0.094
21125.50 0.043
21133.06 0.023
21140.57 0.020
21148.11 0.019
21178.50 0.018
21185.78 0.142
21197.74 0.032
21200.82 0.026
21210.30 0.013
21244.53 0.072
21277.74 0.149
21358.67 0.035
21489.17 0.017
21499.14 0.026
21513.69 0.088
21517.57 0.050
21524.28 0.029
21529.59 0.051
21535.28 0.030
21542.29 0.032
21591.02 0.066
21599.82 0.033
21656.58 0.016
21667.87 0.049
21671.10 0.049
21679.07 0.017
21686.88 0.140
21703.33 0.025
21726.01 0.097
21745.22 0.080
21750.03 0.015
21792.95 0.077
21833.69 0.199
21840.55 0.086
21849.41 0.205
21871.06 0.041
21877.34 0.047
21882.41 0.059
21896.23 0.052
21905.23 0.072
21946.42 0.079
21966.78 0.027
22030.25 0.035
22040.37 0.053
22049.00 0.172
22059.09 0.026
22067.71 0.043
22159.85 0.091
22187.48 0.015
22219.48 0.065
22237.41 0.015
22247.53 0.025
22252.10 0.044
22266.27 0.112
22272.02 0.110
22303.46 0.014
22307.42 0.020
22310.15 0.018
22316.14 0.154
22331.13 0.023
22336.61 0.103
22343.24 0.022
22346.44 0.027
22351.83 0.040
22397.30 0.043
22403.02 0.094
22424.26 0.046
22429.13 0.047
22440.19 0.105
22443.12 0.095
22451.80 0.019
22465.18 0.050
22468.58 0.062
22479.79 0.019
22491.61 0.035
22497.33 0.072
22502.31 0.060
22505.69 0.089
22509.68 0.041
22516.01 0.023
22530.39 0.054
22533.35 0.053
22536.55 0.081
22540.65 0.203
22546.99 0.035
22559.84 0.128
22566.91 0.152
22579.26 0.060
22584.57 0.107
22588.58 0.021
22592.02 0.025
22595.39 0.029
22617.27 0.258
22637.78 0.140
22643.26 0.063
22662.36 0.015
22682.39 0.190
22686.47 0.295
22694.10 0.026
22709.91 0.021
22724.57 0.233
22731.91 0.018
22735.84 0.094
22743.38 0.017
22747.92 0.140
22765.14 0.199
22772.24 0.224
22781.80 0.078
22788.20 0.043
22808.29 0.340
22815.77 0.069
22839.91 0.345
22849.97 0.069
22853.67 0.301
22866.75 0.074
22877.17 0.086
22883.06 0.054
22894.53 0.288
22916.21 0.077
22930.11 0.029
22974.05 0.014
22994.12 0.241
23001.95 0.204
23007.43 0.206
23017.79 0.058
23044.28 0.292
23049.35 0.136
23054.78 0.190
23060.47 0.104
23065.78 0.163
23080.47 0.061
23083.64 0.047
23094.11 0.122
23099.98 0.082
23121.75 0.149
23191.82 0.122
23195.78 0.182
23199.04 0.137
23214.76 0.083
23219.46 0.247
23238.64 0.138
23285.37 0.419
23290.56 0.083
23293.23 0.107
23301.82 0.029
23308.81 0.142
23336.47 0.053
23339.84 0.179
23344.68 0.081
23374.13 0.056
23382.64 0.200
23403.70 0.356
23420.48 0.245
23425.02 0.120
23454.09 0.143
23464.89 0.165
23467.85 0.304
23481.23 0.312
23484.69 0.235
23492.96 0.229
23497.65 0.234
23504.22 0.391
23516.49 0.341
23540.83 0.024
23546.46 0.101
23568.87 0.084
23572.75 0.196
23616.28 0.431
23633.58 0.044
23645.17 0.241
23651.59 0.041
23655.20 0.024
23662.36 0.271
23672.36 0.285
23689.55 0.301
23713.81 0.574
23721.32 0.255
23724.58 0.257
23753.35 0.143
23782.13 0.679
23801.61 0.206
23804.83 0.294
23808.29 0.115
23822.05 0.040
23840.24 0.703
23854.43 0.056
23859.77 0.569
23881.51 0.647
23893.54 0.033
23901.54 0.235
23915.10 0.788
23924.60 0.067
23948.21 0.131
23951.06 0.097
23955.14 0.152
23967.37 0.702
23973.38 0.374
23989.54 0.104
24003.74 0.435
24017.91 0.081
24028.35 0.026
24032.40 0.128
24051.73 0.059
24056.42 0.161
24061.03 0.229
24069.77 0.663
24076.99 0.493
24090.48 0.073
24117.61 0.473
24123.07 0.130
24128.20 0.038
24137.56 0.266
24143.34 0.710
24173.17 0.062
24185.64 0.862
24191.50 0.891
24206.85 0.030
24251.17 0.197
24263.78 0.721
24276.60 0.072
24289.59 0.032
24294.32 0.040
24302.15 0.052
24327.90 0.141
24333.51 0.735
24354.30 0.992
24361.96 0.930
24375.98 0.056
24379.24 0.044
24388.04 0.040
24396.28 0.024
24410.21 0.024
24415.41 0.026
24428.75 0.378
24444.71 0.054
24460.99 0.986
24472.75 0.877
24480.64 0.690
24513.44 0.981
24537.99 0.639
24546.79 0.919
24566.35 0.111
24581.67 0.030
24593.52 0.108
24612.85 0.070
24644.18 0.568
24660.81 0.098
24678.09 0.790
24686.15 0.138
24752.47 0.286
24756.99 0.216
24761.48 0.052
24765.09 0.044
24774.42 0.335
24785.97 0.482
24791.17 0.177
24797.71 0.581
24805.27 0.937
24815.25 0.960
24842.56 0.999
24861.80 0.254
24868.93 0.840
24878.84 0.998
